File: data/raman/ZIF62_crystal_2.csv
TITLE,C2
DATA TYPE,RAMAN SPECTRUM
ORIGIN,JASCO
OWNER,
DATE,24/12/03
TIME,18:17:53
SPECTROMETER/DATA SYSTEM,
LOCALE,1041
XUNITS,1/CM
YUNITS,INTENSITY
FIRSTX,  545.6195
LASTX, 1597.84
NPOINTS,    1024
XYDATA
545.6195,645.5
550.1897,662.5
554.7560,676
559.3185,649
563.8771,642
568.4318,643.557
572.9825,646.5
577.5294,638.5
582.0724,634
586.6116,644
591.1469,638
595.6783,633
600.2059,633
604.7297,645
609.2495,644
613.7656,640.5
618.2777,633
622.7861,628.5
627.2906,627.5
631.7913,631
636.2881,630.5
640.7811,648
645.2704,657.5
649.7558,643.5
654.2374,640
658.7151,638.5
663.1891,648.5
667.6593,672
672.1257,658.5
676.5883,645
681.0471,625.5
685.5021,602.5
689.9534,597
694.4009,591.5
698.8446,577.5
703.2845,575
707.7208,571.5
712.1532,571
716.5818,573
721.0068,568.5
725.4279,570
729.8454,562
734.2591,570
738.6690,575
743.0753,566.5
747.4778,565.246
751.8765,557
756.2716,565
760.6630,569.5
765.0506,565
769.4345,571.5
773.8147,668
778.1912,598
782.5641,562.5
786.9332,562
791.2986,560.5
795.6604,561.5
800.0185,561.5
804.3729,567
808.7236,566
813.0707,557.5
817.4141,564.5
821.7538,562.5
826.0898,567.254
830.4223,574.5
834.7510,572
839.0762,570
843.3976,568
847.7155,566.5
852.0297,566.5
856.3403,556
860.6472,560
864.9505,549
869.2502,561
873.5463,559
877.8388,559.5
882.1276,558
886.4129,560
890.6946,563
894.9726,568.5
899.2471,573.5
903.5179,573
907.7852,585
912.0489,574.5
916.3090,565
920.5656,571.5
924.8185,572
929.0679,586
933.3138,572
937.5561,573
941.7948,572.5
946.0300,575.5
950.2615,580
954.4896,627.5
958.7142,580
962.9351,571
967.1526,587
971.3665,612.5
975.5768,715.5
979.7838,629.5
983.9871,579.5
988.1869,574.5
992.3832,575
996.5760,573
1000.77,587.5
1004.95,600
1009.13,581
1013.31,592
1017.49,648
1021.66,631
1025.83,585.5
1029.99,574
1034.15,565.5
1038.31,565.5
1042.47,562.5
1046.62,570.5
1050.76,570
1054.91,572
1059.05,573.5
1063.19,571.5
1067.32,571
1071.45,572
1075.58,576.5
1079.7,588
1083.82,640
1087.94,600.5
1092.05,600
1096.16,597
1100.27,611
1104.37,603.5
1108.47,609
1112.56,591
1116.66,591.5
1120.74,599.5
1124.83,580.5
1128.91,594
1132.99,595
1137.07,592.5
1141.14,602
1145.21,610.5
1149.27,606.5
1153.34,613.5
1157.39,632.5
1161.45,666.5
1165.5,779
1169.55,956.5
1173.59,749
1177.64,652.5
1181.67,629.5
1185.71,622
1189.74,620
1193.77,617.5
1197.79,621.5
1201.82,619.5
1205.83,611
1209.85,613
1213.86,618
1217.87,629.5
1221.87,633.5
1225.88,631
1229.87,634
1233.87,649
1237.86,674
1241.85,655.5
1245.84,643
1249.82,642
1253.8,645
1257.77,660.5
1261.74,683.5
1265.71,716
1269.68,830
1273.64,1063
1277.6,910.5
1281.55,743
1285.51,715.5
1289.46,693
1293.4,678.5
1297.34,668.5
1301.28,656
1305.22,658
1309.15,654
1313.08,662
1317.01,652.5
1320.93,652
1324.85,652
1328.77,659.5
1332.68,667
1336.59,681.5
1340.5,682.5
1344.4,696.5
1348.3,689
1352.2,668.5
1356.09,670
1359.98,680.5
1363.87,673.5
1367.75,658
1371.64,661
1375.51,652
1379.39,654.5
1383.26,650.5
1387.13,653
1390.99,654.5
1394.86,657.5
1398.71,659.5
1402.57,666.5
1406.42,661
1410.27,670.5
1414.12,669
1417.96,679.5
1421.8,670.5
1425.64,690
1429.47,670.5
1433.3,679.5
1437.13,687.5
1440.95,683
1444.77,687.5
1448.59,681
1452.41,706.5
1456.22,697
1460.03,697.5
1463.83,703.5
1467.63,716
1471.43,721
1475.23,711
1479.02,710.5
1482.81,725.5
1486.6,771.5
1490.38,776
1494.16,722.5
1497.94,704
1501.71,696.5
1505.48,689.5
1509.25,695.5
1513.02,698
1516.78,690.5
1520.54,697
1524.29,702.5
1528.05,689
1531.8,687.5
1535.54,697.5
1539.29,695
1543.03,693
1546.76,688
1550.5,696.5
1554.23,699.5
1557.96,689
1561.68,703
1565.4,705.5
1569.12,704
1572.84,696
1576.55,699
1580.26,705
1583.97,717
1587.67,704
1591.37,698
1595.07,701.5
1597.84,707.5

##### Extended Information
[Comments]
Sample name,C2
Comment,
User,Garrek Stemo
Division
Company,ìﬁó«êÊí[â»äwãZèpëÂäwâ@ëÂäw

[Detailed Information]
Creation date,2024/12/03 18:17

Data array type,Non-linear data array
Horizontal axis,Raman Shift [cm-1]
Vertical axis,Int.
Start,545.62 cm-1
End,1597.84 cm-1
Data points,1024

[Measurement Information]
Model Name,NRS-5100
Serial Number,C008561420

Measurement Date,2024/12/03 18:17

Exposure,370 sec
Accumulation,2
Center wavenumber,1100.27 cm-1
Z position,16999.3 um
Binning Upper,97
Binning Lower,155
Valid Channel,1 - 1024
Shift Speed,16.25 usecs
Amplitude,Normal
Readout Rate,100kHz at 16-bit
Pre-Amplifier Gain,1x
Mode,Conventional
CCD,DU420_OE,12

Laser wavelength,532.05 nm
Monochromator,Single
Grating,1800 l/mm
Slit,50 x 1000 um
Aperture,d-4000 um
Rejection filter,532.0 nm
Resolution,1.97 cm-1, 1.03 cm-1/pixel
Objective lens,MPLFLN 100 x
BS/DM,BS 30/70
Laser power,0.1 mW
Attenuator,1%(OD2)
Cosmic ray reduction,On
CCD temperature,-69.0 C
Shift,-3.20 cm-1