File: data/raman/ZIF62_glass_2b.csv
TITLE,G1-1
DATA TYPE,RAMAN SPECTRUM
ORIGIN,JASCO
OWNER,
DATE,25/03/17
TIME,13:28:06
SPECTROMETER/DATA SYSTEM,
LOCALE,1041
XUNITS,1/CM
YUNITS,INTENSITY
FIRSTX,  545.3755
LASTX, 1597.63
NPOINTS,    1024
XYDATA
545.3755,310
549.9459,310
554.5125,314
559.0750,309
563.6337,308
568.1886,309
572.7395,308
577.2866,306
581.8298,303
586.3691,307
590.9045,309
595.4362,302
599.9639,305
604.4877,305
609.0078,306
613.5239,304
618.0363,307
622.5448,300
627.0494,304
631.5503,300
636.0473,301
640.5405,307
645.0298,318
649.5154,309
653.9971,311
658.4751,305
662.9492,306
667.4196,313
671.8861,308
676.3489,305
680.8079,293
685.2631,293
689.7144,290
694.1620,295
698.6060,286
703.0460,291
707.4824,284
711.9150,284
716.3438,285
720.7689,287
725.1902,286
729.6078,283
734.0216,286
738.4317,281
742.8381,283
747.2407,281
751.6396,285
756.0349,282
760.4264,287
764.8141,288
769.1982,291
773.5786,304.5
777.9553,305
782.3282,290
786.6975,287
791.0631,284
795.4250,277
799.7833,278
804.1378,285
808.4887,283
812.8359,285
817.1794,283
821.5193,283
825.8555,283
830.1881,279
834.5170,287
838.8423,283
843.1639,282
847.4819,289
851.7963,281
856.1070,280
860.4141,281
864.7175,276
869.0174,282
873.3136,281
877.6062,276
881.8952,279
886.1807,277
890.4625,279
894.7407,287
899.0153,280
903.2863,287
907.5537,284
911.8175,286
916.0778,287
920.3345,283
924.5876,279
928.8372,282
933.0831,280
937.3256,285
941.5644,279
945.7997,282
950.0315,286
954.2597,291
958.4843,287
962.7054,284
966.9230,281
971.1371,289
975.3477,303
979.5546,298
983.7581,285
987.9581,280
992.1545,278
996.3475,281
1000.54,285
1004.72,283
1008.91,283
1013.08,292
1017.26,299
1021.43,293
1025.6,286
1029.77,287
1033.93,282
1038.08,282
1042.24,278
1046.39,275
1050.54,283
1054.68,279
1058.82,280
1062.96,279
1067.09,279
1071.22,277
1075.35,281
1079.47,289
1083.59,295
1087.71,291
1091.82,290
1095.93,284
1100.04,287
1104.14,292
1108.24,291
1112.34,290
1116.43,284
1120.52,283
1124.61,286
1128.69,283
1132.77,285
1136.84,286
1140.92,286
1144.98,285
1149.05,294
1153.11,288
1157.17,306
1161.23,321
1165.28,340
1169.33,352
1173.37,316
1177.41,295
1181.45,294
1185.49,292
1189.52,294
1193.55,291
1197.57,292
1201.59,291
1205.61,296
1209.63,293
1213.64,292
1217.65,294
1221.65,299
1225.66,299
1229.65,294
1233.65,308
1237.64,302
1241.63,303
1245.62,303
1249.6,301
1253.58,307
1257.55,311
1261.52,320
1265.49,336
1269.46,376
1273.42,389
1277.38,370
1281.33,332.5
1285.29,319
1289.24,313
1293.18,308
1297.12,307
1301.06,302
1305,304
1308.93,307
1312.86,303
1316.79,306
1320.71,304
1324.63,303
1328.55,306
1332.46,313
1336.37,307
1340.28,306
1344.18,310
1348.08,313
1351.98,307
1355.88,302
1359.77,309
1363.65,309
1367.54,309
1371.42,302
1375.3,304
1379.17,305
1383.04,303
1386.91,304
1390.78,299
1394.64,297
1398.5,302
1402.36,301
1406.21,304
1410.06,309
1413.9,303
1417.75,305
1421.59,304
1425.42,307
1429.26,309
1433.09,306
1436.92,305
1440.74,308
1444.56,315
1448.38,310
1452.19,313
1456.01,314
1459.81,319
1463.62,314
1467.42,313
1471.22,320
1475.02,317
1478.81,317
1482.6,324
1486.39,330
1490.17,329
1493.95,322
1497.73,322
1501.5,311
1505.27,309
1509.04,312
1512.81,315
1516.57,312
1520.33,303
1524.08,310
1527.84,309
1531.59,312
1535.33,312
1539.08,312
1542.82,321
1546.55,316
1550.29,321
1554.02,316
1557.75,315
1561.47,315
1565.19,317
1568.91,312
1572.63,315
1576.34,313
1580.05,313
1583.76,315
1587.46,309
1591.16,319
1594.86,315
1597.63,319

##### Extended Information
[Comments]
Sample name,G1-1
Comment,
User,Garrek Stemo
Division
Company,JASCO

[Detailed Information]
Creation date,2025/03/17 13:28

Data array type,Non-linear data array
Horizontal axis,Raman Shift [cm-1]
Vertical axis,Int.
Start,545.376 cm-1
End,1597.63 cm-1
Data points,1024

[Measurement Information]
Model Name,NRS-5100
Serial Number,C008561420

Measurement Date,2025/03/17 13:28

Exposure,120 sec
Accumulation,1
Center wavenumber,1100.04 cm-1
Z position,16395.5 um
Binning Upper,97
Binning Lower,155
Valid Channel,1 - 1024
Shift Speed,32.25 usecs
Amplitude,Normal
Readout Rate,100kHz at 16-bit
Pre-Amplifier Gain,1x
Mode,Conventional
CCD,DU420_OE,12

Laser wavelength,532.05 nm
Monochromator,Single
Grating,1800 l/mm
Slit,100 x 1000 um
Aperture,d-4000 um
Rejection filter,532.0 nm
Resolution,3.95 cm-1, 1.03 cm-1/pixel
Objective lens,MPLFLN 100 x
BS/DM,BS 30/70
Laser power,0.1 mW
Attenuator,1%(OD2)
Cosmic ray reduction,On
CCD temperature,-69.0 C
Shift,-1.45 cm-1