File: data/raman/ZIF62_crystal_1.csv
TITLE,C1
DATA TYPE,RAMAN SPECTRUM
ORIGIN,JASCO
OWNER,
DATE,24/11/05
TIME,15:23:06
SPECTROMETER/DATA SYSTEM,
LOCALE,1041
XUNITS,1/CM
YUNITS,INTENSITY
FIRSTX,  545.8049
LASTX, 1598
NPOINTS,    1024
XYDATA
545.8049,199
550.3750,200
554.9412,201
559.5035,201
564.0620,202.5
568.6165,200
573.1672,200.5
577.7140,200.5
582.2569,202
586.7960,200.5
591.3311,199
595.8624,197.5
600.3899,199
604.9135,200
609.4332,197.5
613.9492,198.5
618.4612,199.5
622.9694,199
627.4738,200
631.9744,199
636.4711,201
640.9641,204.5
645.4532,203
649.9384,202.5
654.4199,203
658.8976,202
663.3715,202
667.8415,201
672.3078,200.5
676.7703,199
681.2290,197.5
685.6839,198
690.1351,197
694.5824,197
699.0260,195
703.4658,196
707.9019,197.5
712.3342,196
716.7628,197
721.1876,197
725.6086,196
730.0259,197.5
734.4395,195
738.8494,196
743.2555,196.5
747.6579,197.5
752.0565,198
756.4515,196.5
760.8427,195.5
765.2302,197
769.6141,198
773.9941,207
778.3705,203
782.7433,195
787.1123,195
791.4776,195.5
795.8393,196.5
800.1972,195.5
804.5515,196.5
808.9022,195
813.2491,196
817.5923,195
821.9320,198
826.2679,196
830.6002,197
834.9289,197
839.2539,195.5
843.5753,197
847.8930,196
852.2071,195.5
856.5176,195.5
860.8244,196
865.1276,201.5
869.4272,195
873.7231,193.5
878.0155,196.5
882.3043,195
886.5894,194.5
890.8710,195.5
895.1489,196.5
899.4233,199
903.6940,197
907.9612,196
912.2248,196.5
916.4848,195.5
920.7412,197
924.9941,196
929.2433,197
933.4891,194.5
937.7313,198.5
941.9698,195
946.2049,198
950.4364,199
954.6644,199.5
958.8888,196.5
963.1097,195.5
967.3270,197.5
971.5408,200.5
975.7511,205.5
979.9578,201
984.1611,196.5
988.3608,194.5
992.5569,196.5
996.7496,196
1000.94,199.5
1005.12,200
1009.31,197.5
1013.49,196.5
1017.66,198
1021.83,201
1026,195
1030.17,196
1034.33,195.5
1038.48,195
1042.64,194.5
1046.79,195.5
1050.94,197.5
1055.08,196.5
1059.22,196
1063.36,196
1067.49,197
1071.62,196
1075.75,197
1079.87,198
1083.99,201.5
1088.11,201.5
1092.22,199
1096.33,197.5
1100.44,200
1104.54,200
1108.64,201
1112.73,198.5
1116.83,198
1120.91,197.5
1125,196
1129.08,197.5
1133.16,197
1137.24,198
1141.31,196
1145.38,196.5
1149.44,197
1153.5,198.5
1157.56,199
1161.62,203.5
1165.67,208.5
1169.72,212
1173.76,211.5
1177.81,208
1181.84,202
1185.88,201
1189.91,197.5
1193.94,198.5
1197.96,199
1201.98,198.5
1206,197.5
1210.02,199.5
1214.03,200.5
1218.04,198.5
1222.04,199
1226.04,200.5
1230.04,199.5
1234.04,199.5
1238.03,200.5
1242.02,201.5
1246,200
1249.98,200
1253.96,203.5
1257.94,203
1261.91,201
1265.88,205
1269.84,214.5
1273.81,225
1277.76,237.5
1281.72,223
1285.67,211.5
1289.62,209
1293.57,207
1297.51,206
1301.45,205.5
1305.38,202.5
1309.32,201
1313.25,201.5
1317.17,202.5
1321.1,203
1325.02,202.5
1328.93,203.5
1332.84,203
1336.75,201.5
1340.66,203.5
1344.57,203
1348.47,205
1352.36,202.5
1356.26,206
1360.15,203.5
1364.03,202
1367.92,204.5
1371.8,202.5
1375.68,202
1379.55,203
1383.42,203.5
1387.29,202.5
1391.16,205
1395.02,203.5
1398.88,205
1402.73,206
1406.59,205.5
1410.44,202
1414.28,202.5
1418.12,203.5
1421.96,203
1425.8,203
1429.63,205.5
1433.46,202
1437.29,205.5
1441.12,205
1444.94,204
1448.75,206.5
1452.57,204.5
1456.38,206
1460.19,207.5
1463.99,205
1467.8,209.5
1471.59,207
1475.39,208
1479.18,208.5
1482.97,207.5
1486.76,218.5
1490.54,219.5
1494.32,213.5
1498.1,209
1501.87,205.5
1505.64,206.5
1509.41,204.5
1513.18,206
1516.94,205
1520.7,203.5
1524.45,203.5
1528.21,204.5
1531.96,204
1535.7,203.5
1539.45,203
1543.19,203
1546.92,204
1550.66,204
1554.39,205
1558.12,204
1561.84,205.5
1565.56,203
1569.28,205
1573,204
1576.71,204
1580.42,205.5
1584.13,206
1587.83,206
1591.53,204.5
1595.23,203
1598,204

##### Extended Information
[Comments]
Sample name,C1
Comment,
User,Garrek Stemo
Division
Company,ìﬁó«êÊí[â»äwãZèpëÂäwâ@ëÂäw

[Detailed Information]
Creation date,2024/11/05 15:23

Data array type,Non-linear data array
Horizontal axis,Raman Shift [cm-1]
Vertical axis,Int.
Start,545.805 cm-1
End,1598 cm-1
Data points,1024

[Measurement Information]
Model Name,NRS-5100
Serial Number,C008561420

Measurement Date,2024/11/05 15:23

Exposure,60 sec
Accumulation,2
Center wavenumber,1100.44 cm-1
Z position,16313.8 um
Binning Upper,97
Binning Lower,155
Valid Channel,1 - 1024
Shift Speed,16.25 usecs
Amplitude,Normal
Readout Rate,100kHz at 16-bit
Pre-Amplifier Gain,1x
Mode,Conventional
CCD,DU420_OE,12

Laser wavelength,532.05 nm
Monochromator,Single
Grating,1800 l/mm
Slit,25 x 1000 um
Aperture,d-4000 um
Rejection filter,532.0 nm
Resolution,0.99 cm-1, 1.03 cm-1/pixel
Objective lens,MPLFLN 100 x
BS/DM,BS 30/70
Laser power,0.7 mW
Attenuator,5%(OD1.3)
Cosmic ray reduction,On
CCD temperature,-69.0 C
Shift,-2.19 cm-1