File: data/raman/ZIF62_glass_2a.csv
TITLE,G1-1
DATA TYPE,RAMAN SPECTRUM
ORIGIN,JASCO
OWNER,
DATE,25/03/17
TIME,14:03:06
SPECTROMETER/DATA SYSTEM,
LOCALE,1041
XUNITS,1/CM
YUNITS,INTENSITY
FIRSTX,  545.3755
LASTX, 1597.63
NPOINTS,    1024
XYDATA
545.3755,309
549.9459,313
554.5125,326
559.0750,312
563.6337,312
568.1886,310
572.7395,312
577.2866,308
581.8298,302
586.3691,310
590.9045,306
595.4362,303
599.9639,302
604.4877,307
609.0078,306
613.5239,307
618.0363,302
622.5448,299
627.0494,305
631.5503,305
636.0473,305
640.5405,310
645.0298,321
649.5154,313
653.9971,314
658.4751,310
662.9492,308
667.4196,309
671.8861,307
676.3489,302
680.8079,299
685.2631,301
689.7144,290
694.1620,286
698.6060,287
703.0460,283
707.4824,285
711.9150,284
716.3438,287
720.7689,284
725.1902,288
729.6078,282
734.0216,282
738.4317,287
742.8381,281
747.2407,282
751.6396,288
756.0349,285
760.4264,288
764.8141,282
769.1982,289
773.5786,313
777.9553,314
782.3282,287
786.6975,280
791.0631,283
795.4250,288
799.7833,285
804.1378,283
808.4887,283
812.8359,287
817.1794,287
821.5193,279
825.8555,282
830.1881,286
834.5170,286
838.8423,286
843.1639,287
847.4819,284
851.7963,286
856.1070,278
860.4141,276
864.7175,279
869.0174,279
873.3136,283
877.6062,283
881.8952,272
886.1807,281
890.4625,283
894.7407,279
899.0153,283
903.2863,289
907.5537,283
911.8175,284
916.0778,277
920.3345,280
924.5876,281
928.8372,276
933.0831,282
937.3256,280
941.5644,283
945.7997,282
950.0315,286
954.2597,290
958.4843,285
962.7054,289
966.9230,284
971.1371,289
975.3477,304
979.5546,294
983.7581,282
987.9581,280
992.1545,282
996.3475,276
1000.54,284
1004.72,286
1008.91,287
1013.08,290
1017.26,313
1021.43,301
1025.6,287
1029.77,282
1033.93,283
1038.08,276
1042.24,276
1046.39,279
1050.54,277
1054.68,280
1058.82,278
1062.96,284
1067.09,282
1071.22,278
1075.35,278
1079.47,286
1083.59,294
1087.71,289
1091.82,289
1095.93,288
1100.04,291
1104.14,292
1108.24,292
1112.34,284
1116.43,287
1120.52,285
1124.61,282
1128.69,283
1132.77,285
1136.84,289
1140.92,287
1144.98,290
1149.05,296
1153.11,299
1157.17,302
1161.23,324
1165.28,338
1169.33,338
1173.37,311
1177.41,298
1181.45,290
1185.49,291
1189.52,291
1193.55,289
1197.57,292
1201.59,296
1205.61,292
1209.63,293
1213.64,293
1217.65,293
1221.65,297
1225.66,295
1229.65,299
1233.65,305
1237.64,305
1241.63,305
1245.62,300
1249.6,295
1253.58,300
1257.55,309
1261.52,323
1265.49,334
1269.46,375
1273.42,402
1277.38,368
1281.33,332
1285.29,321
1289.24,312
1293.18,311
1297.12,306
1301.06,305
1305,305
1308.93,299
1312.86,299
1316.79,302
1320.71,302
1324.63,301
1328.55,304
1332.46,304
1336.37,299
1340.28,304
1344.18,310
1348.08,313
1351.98,305
1355.88,307
1359.77,310
1363.65,314
1367.54,306
1371.42,299
1375.3,302
1379.17,299
1383.04,299
1386.91,304
1390.78,306
1394.64,302
1398.5,295
1402.36,301
1406.21,305
1410.06,302
1413.9,304
1417.75,303
1421.59,300
1425.42,305
1429.26,303
1433.09,303
1436.92,311
1440.74,309
1444.56,308
1448.38,304
1452.19,314
1456.01,311
1459.81,312
1463.62,314
1467.42,311
1471.22,319
1475.02,315
1478.81,318
1482.6,317
1486.39,325
1490.17,327
1493.95,328
1497.73,316
1501.5,311
1505.27,312
1509.04,311
1512.81,306
1516.57,307
1520.33,312
1524.08,312
1527.84,301
1531.59,309
1535.33,311
1539.08,307
1542.82,307
1546.55,317
1550.29,310
1554.02,306
1557.75,315
1561.47,313
1565.19,314
1568.91,311
1572.63,318
1576.34,312
1580.05,319
1583.76,320
1587.46,315
1591.16,310
1594.86,313
1597.63,314

##### Extended Information
[Comments]
Sample name,G1-1
Comment,
User,Garrek Stemo
Division
Company,JASCO

[Detailed Information]
Creation date,2025/03/17 14:03

Data array type,Non-linear data array
Horizontal axis,Raman Shift [cm-1]
Vertical axis,Int.
Start,545.376 cm-1
End,1597.63 cm-1
Data points,1024

[Measurement Information]
Model Name,NRS-5100
Serial Number,C008561420

Measurement Date,2025/03/17 14:03

Exposure,120 sec
Accumulation,1
Center wavenumber,1100.04 cm-1
Z position,16550.2 um
Binning Upper,97
Binning Lower,155
Valid Channel,1 - 1024
Shift Speed,32.25 usecs
Amplitude,Normal
Readout Rate,100kHz at 16-bit
Pre-Amplifier Gain,1x
Mode,Conventional
CCD,DU420_OE,12

Laser wavelength,532.05 nm
Monochromator,Single
Grating,1800 l/mm
Slit,100 x 1000 um
Aperture,d-4000 um
Rejection filter,532.0 nm
Resolution,3.95 cm-1, 1.03 cm-1/pixel
Objective lens,MPLFLN 100 x
BS/DM,BS 30/70
Laser power,0.1 mW
Attenuator,1%(OD2)
Cosmic ray reduction,On
CCD temperature,-69.0 C
Shift,-1.45 cm-1